Wavelength	Counts
339.8119	-68.64352
340.198	-68.64352
340.5842	-68.64352
340.9702	-118.96504
341.3563	-87.36781
341.7423	-72.73946
342.1283	-87.95294
342.5142	-101.99616
342.9001	-75.08
343.2859	-80.93134
343.6717	-24.75848
344.0575	-55.77058
344.4432	-33.53549
344.8289	-45.23817
345.2145	18.54143
345.6001	9.76442
345.9856	48.38326
346.3711	50.13866
346.7566	60.08594
347.142	96.36424
347.5274	111.57773
347.9128	110.40746
348.2981	132.05741
348.6833	137.32362
349.0685	174.18706
349.4537	193.49648
349.8389	194.66674
350.224	174.77219
350.609	238.55179
350.994	216.3167
351.379	248.49907
351.7639	230.35991
352.1488	254.3504
352.5336	277.17063
352.9185	269.56389
353.3032	251.42473
353.6879	295.89491
354.0726	288.87331
354.4572	255.52067
354.8418	277.17063
355.2264	257.86121
355.6109	250.25447
355.9954	292.96924
356.3798	278.3409
356.7642	291.79898
357.1485	273.65982
357.5328	255.52067
357.9171	268.39362
358.3013	290.62871
358.6855	297.06518
359.0696	265.46795
359.4537	278.92603
359.8378	262.54228
360.2218	266.05308
360.6058	263.12741
360.9897	280.0963
361.3736	277.17063
361.7574	248.49907
362.1412	223.92344
362.525	247.91393
362.9087	268.97875
363.2924	256.69094
363.676	289.45844
364.0596	243.23286
364.4432	309.93813
364.8267	281.26657
365.2102	256.69094
365.5936	285.94764
365.977	262.54228
366.3603	262.54228
366.7436	257.27607
367.1269	267.80848
367.5101	242.06259
367.8933	198.17755
368.2764	232.70045
368.6595	234.45585
369.0426	285.94764
369.4256	240.89232
369.8085	266.05308
370.1915	244.40313
370.5743	255.52067
370.9572	263.71255
371.34	250.8396
371.7227	272.48956
372.1055	238.55179
372.4881	253.76527
372.8708	277.75576
373.2534	231.53018
373.6359	260.78688
374.0184	253.76527
374.4009	203.44375
374.7833	224.50857
375.1657	250.25447
375.548	274.24496
375.9303	243.23286
376.3126	287.70304
376.6948	248.49907
377.0769	258.44634
377.4591	263.12741
377.8412	270.73415
378.2232	199.93295
378.6052	242.64773
378.9872	234.45585
379.3691	260.78688
379.751	254.93554
380.1328	263.12741
380.5146	252.00987
380.8963	282.43683
381.278	254.93554
381.6597	230.94505
382.0413	257.27607
382.4229	249.0842
382.8044	266.63822
383.1859	278.3409
383.5674	274.24496
383.9488	293.55438
384.3302	233.87072
384.7115	244.40313
385.0928	233.87072
385.474	245.5734
385.8552	251.42473
386.2364	277.17063
386.6175	274.83009
386.9986	247.91393
387.3796	259.03148
387.7606	247.91393
388.1416	268.39362
388.5225	266.05308
388.9033	233.87072
389.2841	261.95715
389.6649	277.17063
390.0457	273.65982
390.4263	288.28817
390.807	274.83009
391.1876	268.39362
391.5682	272.48956
391.9487	253.76527
392.3292	238.55179
392.7096	285.94764
393.09	283.6071
393.4704	268.39362
393.8507	300.57598
394.231	298.23545
394.6112	263.71255
394.9914	245.5734
395.3715	274.24496
395.7516	271.31929
396.1317	273.07469
396.5117	301.16112
396.8917	280.68143
397.2716	241.47746
397.6515	260.20174
398.0313	265.46795
398.4111	276.58549
398.7909	271.90442
399.1706	297.06518
399.5503	288.28817
399.9299	285.94764
400.3095	311.1084
400.6891	297.65032
401.0686	276.58549
401.448	305.84219
401.8275	308.76786
402.2068	319.8854
402.5862	318.13
402.9655	323.39621
403.3447	279.51116
403.7239	317.54487
404.1031	281.8517
404.4822	270.14902
404.8613	315.78947
405.2403	328.66241
405.6193	304.08679
405.9983	305.84219
406.3772	312.27866
406.7561	291.79898
407.1349	331.00295
407.5137	329.24755
407.8924	357.33398
408.2711	346.21643
408.6498	352.06777
409.0284	374.30286
409.4069	377.81366
409.7855	387.17581
410.164	374.88799
410.5424	369.03665
410.9208	391.27174
411.2992	395.95282
411.6775	400.04875
412.0557	394.19741
412.434	399.46362
412.8121	412.33657
413.1903	441.59326
413.5684	457.39188
413.9464	487.81884
414.3245	520.58634
414.7024	577.34433
415.0804	551.01331
415.4582	562.71598
415.8361	585.53621
416.2139	625.91045
416.5916	648.14554
416.9694	676.8171
417.347	734.74536
417.7247	763.41692
418.1022	813.73844
418.4798	826.61139
418.8573	866.40049
419.2347	955.92598
419.6122	1036.08933
419.9895	1069.44197
420.3669	1095.77299
420.7441	1180.03228
421.1214	1281.26045
421.4986	1276.57938
421.8757	1369.03054
422.2529	1484.88706
422.6299	1548.66665
423.007	1641.11782
423.3839	1715.42982
423.7609	1789.1567
424.1378	1887.4592
424.5146	2042.51969
424.8915	2098.69255
425.2682	2244.3909
425.645	2382.4825
426.0216	2546.32
426.3983	2658.08058
426.7749	2823.08835
427.1514	3045.43924
427.5279	3173.58357
427.9044	3349.12375
428.2808	3567.96384
428.6572	3802.60255
429.0336	3999.20755
429.4099	4163.63018
429.7861	4440.39853
430.1623	4731.79523
430.5385	5204.58344
430.9146	5351.45206
431.2907	5694.92567
431.6667	6086.9654
432.0427	6514.69831
432.4187	7143.71728
432.7946	7524.63947
433.1705	7886.83737
433.5463	8538.09143
433.9221	9226.79407
434.2978	9952.94527
434.6735	10388.87005
435.0491	11644.56746
435.4248	12359.60112
435.8003	13326.8275
436.1758	14398.79286
436.5513	15920.14107
436.9268	16968.11594
437.3021	19016.08469
437.6775	20474.23844
438.0528	22773.22965
438.4281	24858.64697
438.8033	27102.63558
439.1785	30429.12197
439.5536	31559.01558
439.9287	33757.94889
440.3037	38164.00737
440.6787	39636.20433
441.0537	42218.98549
441.4286	45556.58942
441.8035	46994.26348
442.1783	48824.56241
442.5531	50273.93915
442.9278	50514.4292
443.3025	51777.73335
443.6772	50711.61933
444.0518	52181.47576
444.4264	51671.82411
444.8009	50157.4975
445.1754	50592.83715
445.5498	47124.74835
445.9242	46752.60317
446.2985	46403.27822
446.6728	42780.12893
447.0471	40959.77728
447.4213	39759.66759
447.7955	38914.7342
448.1696	37578.28831
448.5437	34770.23058
448.9178	33664.91259
449.2918	32070.42264
449.6657	30369.43831
450.0397	29196.82991
450.4135	28412.75045
450.7874	27086.25183
451.1612	25413.35393
451.5349	24639.22174
451.9086	23333.20282
452.2823	21686.63594
452.6559	21250.12603
453.0294	19380.62313
453.403	19549.72683
453.7764	18301.63616
454.1499	17474.25679
454.5233	16670.8679
454.8966	15939.45049
455.2699	15224.41683
455.6432	14886.79456
456.0164	14137.23799
456.3896	13660.93898
456.7627	12951.75665
457.1358	12088.68411
457.5089	11897.34532
457.8819	11286.46549
458.2548	10304.61076
458.6277	10323.92018
459.0006	9906.13456
459.3734	9305.78715
459.7462	9314.56415
460.119	8789.69902
460.4917	8305.79326
460.8643	8044.82353
461.2369	7925.45621
461.6095	7469.63688
461.982	7284.14942
462.3545	6893.27996
462.7269	6869.8746
463.0993	6590.76572
463.4717	6116.2221
463.844	6060.04924
464.2162	6029.03715
464.5884	5677.37165
464.9606	5497.73554
465.3327	5280.06572
465.7048	5076.43911
466.0769	5046.01215
466.4489	4952.97585
466.8208	4625.30085
467.1927	4574.3942
467.5646	4528.16862
467.9364	4336.82982
468.3082	4332.73389
468.6799	4132.61808
469.0516	3955.90764
469.4232	3920.21447
469.7948	3912.60773
470.1664	3830.68898
470.5379	3728.87567
470.9094	3587.27326
471.2808	3416.41415
471.6522	3381.30612
472.0235	3355.56023
472.3948	3258.42799
472.7661	3085.22835
473.1373	3107.46344
473.5084	3126.18773
473.8796	2909.68817
474.2506	2867.55853
474.6217	2814.31134
474.9927	2761.06415
475.3636	2730.05206
475.7345	2565.62942
476.1054	2528.18085
476.4762	2467.32692
476.8469	2406.47299
477.2177	2325.72451
477.5883	2408.2284
477.959	2209.86799
478.3296	2167.73835
478.7001	2146.67353
479.0706	2079.38313
479.4411	2065.33991
479.8115	1909.69429
480.1819	1911.44969
480.5522	1859.37277
480.9225	1821.33907
481.2927	1767.50674
481.6629	1693.19473
482.033	1672.71505
482.4031	1624.73407
482.7732	1589.0409
483.1432	1517.65456
483.5132	1460.31143
483.8831	1397.11697
484.253	1397.11697
484.6229	1362.00893
484.9926	1328.6563
485.3624	1280.67532
485.7321	1305.25094
486.1018	1230.3538
486.4714	1199.92683
486.841	1153.70125
487.2105	1151.36072
487.58	1137.3175
487.9494	1099.2838
488.3188	1063.00549
488.6882	1063.59063
489.0575	989.86375
489.4268	969.9692
489.796	966.4584
490.1652	924.32875
490.5343	936.61657
490.9034	897.99773
491.2724	865.23023
491.6414	871.08157
492.0104	862.88969
492.3793	871.08157
492.7482	843.58027
493.117	813.15331
493.4858	774.53447
493.8545	759.90612
494.2232	752.88451
494.5918	727.13862
494.9604	752.88451
495.329	762.24665
495.6975	723.62782
496.066	665.11442
496.4344	668.04009
496.8028	673.89143
497.1711	663.35902
497.5394	641.12393
497.9076	642.2942
498.2758	637.61313
498.644	629.42125
499.0121	608.94157
499.3802	591.38755
499.7482	588.46188
500.1162	573.2484
500.4841	549.2579
500.852	566.22679
501.2198	603.67536
501.5876	552.76871
501.9554	566.22679
502.3231	521.17148
502.6908	524.09715
503.0584	522.92688
503.426	536.97009
503.7935	494.84045
504.161	506.54313
504.5284	513.56473
504.8958	514.14987
505.2632	507.7134
505.6305	462.65808
505.9978	469.67969
506.365	474.9459
506.7322	507.12826
507.0993	464.41348
507.4664	499.52152
507.8334	498.93639
508.2004	435.15679
508.5674	419.35817
508.9343	444.51893
509.3012	458.56215
509.668	443.34866
510.0347	394.78255
510.4015	395.36768
510.7682	422.28384
511.1348	405.31496
511.5014	425.20951
511.8679	381.9096
512.2345	395.36768
512.6009	411.1663
512.9673	424.03924
513.3337	401.80415
513.7	406.48523
514.0663	373.71773
514.4326	393.02715
514.7987	383.665
515.1649	338.02456
515.531	391.27174
515.8971	353.23804
516.2631	396.53795
516.629	362.60018
516.995	330.41782
517.3608	373.13259
517.7267	348.55697
518.0925	356.74884
518.4582	336.26915
518.8239	369.03665
519.1896	377.22853
519.5552	353.23804
519.9207	329.83268
520.2863	344.46103
520.6517	383.07987
521.0172	325.73674
521.3826	331.00295
521.7479	320.47054
522.1132	343.8759
522.4784	342.70563
522.8436	321.05567
523.2088	326.90701
523.5739	338.02456
523.939	339.77996
524.304	315.20433
524.669	327.49215
525.0339	352.6529
525.3988	328.66241
525.7637	339.19482
526.1285	323.39621
526.4932	327.49215
526.8579	275.41523
527.2226	339.77996
527.5872	336.85429
527.9518	331.00295
528.3163	307.59759
528.6808	301.74625
529.0453	282.43683
529.4096	282.43683
529.774	302.33139
530.1383	304.08679
530.5026	328.66241
530.8668	317.54487
531.2309	295.30978
531.5951	281.8517
531.9592	282.43683
532.3232	261.37201
532.6872	267.22335
533.0511	295.89491
533.415	298.82058
533.7789	317.54487
534.1427	289.45844
534.5064	314.03407
534.8702	264.88282
535.2338	271.90442
535.5975	301.16112
535.961	305.84219
536.3246	258.44634
536.6881	269.56389
537.0515	293.55438
537.4149	284.19223
537.7783	291.79898
538.1416	274.24496
538.5049	305.25706
538.8681	295.30978
539.2312	301.74625
539.5944	285.3625
539.9575	294.72465
540.3205	302.91652
540.6835	268.97875
541.0464	282.43683
541.4093	309.93813
541.7722	287.70304
542.135	320.47054
542.4978	301.74625
542.8605	278.3409
543.2232	273.65982
543.5858	277.17063
543.9484	299.99085
544.3109	281.8517
544.6734	269.56389
545.0359	290.62871
545.3983	290.04357
545.7606	281.26657
546.123	298.82058
546.4852	303.50165
546.8474	258.44634
547.2096	292.96924
547.5718	291.79898
547.9338	297.65032
548.2959	283.02197
548.6579	261.95715
549.0198	280.0963
549.3817	280.0963
549.7436	284.19223
550.1054	300.57598
550.4672	308.18273
550.8289	298.82058
551.1906	316.95973
551.5522	258.44634
551.9138	280.68143
552.2753	294.72465
552.6368	255.52067
552.9983	299.99085
553.3597	288.28817
553.721	274.24496
554.0823	285.3625
554.4436	276.58549
554.8048	273.65982
555.166	261.95715
555.5271	309.93813
555.8882	268.39362
556.2493	284.19223
556.6102	258.44634
556.9712	300.57598
557.3321	287.1179
557.6929	287.1179
558.0538	308.18273
558.4145	281.26657
558.7752	297.65032
559.1359	319.30027
559.4965	308.76786
559.8571	301.16112
560.2177	280.0963
560.5781	275.41523
560.9386	296.48005
561.299	321.64081
561.6593	282.43683
562.0196	307.59759
562.3799	248.49907
562.7401	252.595
563.1003	271.31929
563.4604	292.38411
563.8205	259.03148
564.1805	282.43683
564.5405	297.65032
564.9005	256.69094
565.2603	271.90442
565.6202	254.93554
565.98	278.92603
566.3398	322.81107
566.6995	262.54228
567.0591	274.24496
567.4188	307.59759
567.7783	259.61661
568.1379	285.94764
568.4973	256.69094
568.8568	274.83009
569.2162	283.02197
569.5755	299.40572
569.9348	276.58549
570.2941	268.97875
570.6533	280.68143
571.0124	241.47746
571.3715	267.22335
571.7306	279.51116
572.0896	287.70304
572.4486	225.09371
572.8075	264.29768
573.1664	283.02197
573.5253	318.13
573.884	253.76527
574.2428	299.99085
574.6015	283.6071
574.9601	285.94764
575.3188	273.65982
575.6773	306.42732
576.0358	259.03148
576.3943	280.68143
576.7527	264.29768
577.1111	274.24496
577.4694	299.99085
577.8277	229.77478
578.186	275.41523
578.5442	273.65982
578.9023	291.79898
579.2604	316.95973
579.6185	262.54228
579.9765	269.56389
580.3344	230.35991
580.6924	274.24496
581.0502	287.1179
581.408	257.27607
581.7658	266.05308
582.1236	247.3288
582.4812	232.70045
582.8389	266.05308
583.1965	263.71255
583.554	281.8517
583.9115	310.52326
584.269	262.54228
584.6264	275.41523
584.9838	294.13951
585.3411	272.48956
585.6983	257.27607
586.0556	245.5734
586.4127	257.86121
586.7699	246.74366
587.127	281.26657
587.484	264.88282
587.841	414.09197
588.1979	257.86121
588.5548	269.56389
588.9117	287.70304
589.2685	254.93554
589.6253	267.22335
589.982	292.96924
590.3386	271.90442
590.6953	276.00036
591.0518	279.51116
591.4084	289.45844
591.7648	270.73415
592.1213	288.28817
592.4777	298.82058
592.834	294.72465
593.1903	281.26657
593.5466	257.27607
593.9028	271.90442
594.2589	242.64773
594.615	243.81799
594.9711	267.22335
595.3271	281.8517
595.6831	263.71255
596.039	260.78688
596.3949	266.05308
596.7507	278.3409
597.1065	260.78688
597.4623	302.91652
597.8179	266.63822
598.1736	277.75576
598.5292	244.98826
598.8847	264.88282
599.2403	282.43683
599.5957	301.16112
599.9511	284.19223
600.3065	287.1179
600.6618	308.18273
601.0171	267.22335
601.3723	273.65982
601.7275	285.3625
602.0826	280.0963
602.4377	271.31929
602.7928	238.55179
603.1478	269.56389
603.5027	264.88282
603.8576	239.72206
604.2125	267.22335
604.5673	281.26657
604.922	288.87331
605.2767	278.3409
605.6314	262.54228
605.986	254.93554
606.3406	270.14902
606.6951	255.52067
607.0496	263.12741
607.4041	220.99777
607.7584	270.14902
608.1128	228.01938
608.4671	245.5734
608.8213	270.14902
609.1755	244.98826
609.5297	278.92603
609.8838	284.19223
610.2378	271.90442
610.5919	296.48005
610.9458	286.53277
611.2997	267.22335
611.6536	290.04357
612.0074	281.26657
612.3612	274.24496
612.715	237.96665
613.0686	232.11532
613.4223	296.48005
613.7759	226.26398
614.1294	234.45585
614.4829	256.10581
614.8364	275.41523
615.1898	261.37201
615.5431	281.8517
615.8964	263.71255
616.2497	249.0842
616.6029	294.72465
616.9561	238.55179
617.3092	279.51116
617.6623	288.28817
618.0153	277.17063
618.3683	260.78688
618.7212	270.73415
619.0741	290.62871
619.427	271.31929
619.7798	289.45844
620.1325	272.48956
620.4852	276.58549
620.8379	294.13951
621.1905	275.41523
621.543	267.80848
621.8956	249.66933
622.248	250.25447
622.6004	288.87331
622.9528	257.86121
623.3051	274.83009
623.6574	274.83009
624.0096	277.75576
624.3618	266.63822
624.714	277.17063
625.0661	270.73415
625.4181	284.77737
625.7701	252.595
626.122	284.19223
626.4739	243.81799
626.8258	278.3409
627.1776	250.25447
627.5294	256.10581
627.8811	237.38152
628.2327	248.49907
628.5844	261.95715
628.9359	281.8517
629.2874	259.61661
629.6389	248.49907
629.9904	248.49907
630.3417	285.94764
630.6931	271.90442
631.0444	291.21384
631.3956	281.26657
631.7468	282.43683
632.0979	268.97875
632.449	305.25706
632.8001	244.98826
633.1511	254.3504
633.5021	261.37201
633.853	280.0963
634.2038	271.90442
634.5546	256.10581
634.9054	240.89232
635.2561	277.75576
635.6068	236.79639
635.9574	256.69094
636.308	250.25447
636.6585	278.3409
637.009	256.10581
637.3595	292.96924
637.7098	267.22335
638.0602	269.56389
638.4105	236.79639
638.7607	240.30719
639.1109	296.48005
639.4611	281.26657
639.8112	259.03148
640.1612	276.00036
640.5113	249.0842
640.8612	302.91652
641.2111	272.48956
641.561	283.6071
641.9108	278.92603
642.2606	259.03148
642.6103	285.94764
642.96	264.88282
643.3096	257.27607
643.6592	247.3288
644.0088	278.92603
644.3582	299.99085
644.7077	247.3288
645.0571	276.00036
645.4064	292.96924
645.7557	298.82058
646.105	272.48956
646.4542	280.0963
646.8033	293.55438
647.1524	257.86121
647.5015	286.53277
647.8505	253.76527
648.1995	246.15853
648.5484	247.91393
648.8973	275.41523
649.2461	250.25447
649.5949	263.12741
649.9436	268.97875
650.2923	307.01246
650.6409	269.56389
650.9895	256.69094
651.338	271.90442
651.6865	287.1179
652.0349	269.56389
652.3833	260.78688
652.7317	279.51116
653.08	262.54228
653.4282	251.42473
653.7764	232.11532
654.1246	294.13951
654.4727	282.43683
654.8208	277.75576
655.1688	266.05308
655.5167	235.04098
655.8647	256.69094
656.2125	246.15853
656.5603	278.3409
656.9081	256.10581
657.2558	265.46795
657.6035	240.30719
657.9512	249.66933
658.2987	291.21384
658.6463	287.1179
658.9938	247.91393
659.3412	285.94764
659.6886	258.44634
660.0359	242.64773
660.3832	274.24496
660.7305	277.17063
661.0777	277.75576
661.4248	267.22335
661.7719	259.03148
662.119	249.0842
662.466	288.28817
662.813	265.46795
663.1599	290.62871
663.5067	284.77737
663.8535	284.77737
664.2003	271.90442
664.547	274.83009
664.8937	248.49907
665.2403	282.43683
665.5869	273.65982
665.9334	247.91393
666.2799	258.44634
666.6264	287.1179
666.9727	284.19223
667.3191	288.28817
667.6654	273.65982
668.0116	259.61661
668.3578	250.25447
668.7039	236.79639
669.05	290.04357
669.3961	281.26657
669.7421	254.93554
670.088	266.63822
670.4339	321.64081
670.7798	252.595
671.1256	287.1179
671.4714	260.20174
671.8171	280.68143
672.1628	278.3409
672.5084	294.72465
672.8539	271.90442
673.1995	286.53277
673.5449	270.14902
673.8904	263.71255
674.2357	270.14902
674.5811	247.3288
674.9263	252.00987
675.2716	285.3625
675.6167	277.75576
675.9619	271.90442
676.307	241.47746
676.652	261.95715
676.997	270.14902
677.3419	251.42473
677.6868	293.55438
678.0317	277.17063
678.3765	273.65982
678.7212	289.45844
679.0659	271.31929
679.4106	232.70045
679.7552	267.22335
680.0997	250.8396
680.4443	270.14902
680.7887	278.3409
681.1331	242.64773
681.4775	302.91652
681.8218	278.92603
682.1661	250.25447
682.5103	251.42473
682.8545	242.64773
683.1986	290.62871
683.5426	257.86121
683.8867	219.8275
684.2306	230.94505
684.5746	253.18014
684.9185	254.3504
685.2623	244.40313
685.6061	276.58549
685.9498	265.46795
686.2935	287.1179
686.6371	323.39621
686.9807	246.74366
687.3243	270.14902
687.6678	266.63822
688.0112	249.0842
688.3546	234.45585
688.6979	261.95715
689.0412	260.78688
689.3845	278.3409
689.7277	273.07469
690.0708	280.0963
690.4139	272.48956
690.757	302.33139
691.1	267.80848
691.443	252.00987
691.7859	257.27607
692.1287	257.86121
692.4716	260.20174
692.8143	247.91393
693.157	248.49907
693.4997	262.54228
693.8423	236.21125
694.1849	238.55179
694.5274	259.03148
694.8699	274.83009
695.2123	253.76527
695.5547	299.99085
695.897	271.31929
696.2393	273.07469
696.5815	264.88282
696.9237	254.3504
697.2658	243.23286
697.6079	264.29768
697.95	262.54228
698.292	231.53018
698.6339	242.64773
698.9758	257.27607
699.3176	263.12741
699.6594	274.24496
700.0012	276.00036
700.3429	264.29768
700.6845	257.86121
701.0261	279.51116
701.3677	252.00987
701.7092	295.89491
702.0506	244.40313
702.392	251.42473
702.7334	271.31929
703.0747	250.8396
