Wavelength	Counts
339.8119	-55.03916
340.198	-55.03916
340.5842	-55.03916
340.9702	-118.23362
341.3563	-125.84037
341.7423	-94.24313
342.1283	-98.9242
342.5142	-90.1472
342.9001	-72.59318
343.2859	-67.32697
343.6717	-79.02965
344.0575	-59.72023
344.4432	-25.78246
344.8289	2.8891
345.2145	-0.03657
345.6001	31.56066
345.9856	16.93231
346.3711	48.52955
346.7566	62.57276
347.142	97.09566
347.5274	118.74562
347.9128	115.23481
348.2981	126.93749
348.6833	155.60905
349.0685	192.47249
349.4537	157.36446
349.8389	162.04553
350.224	229.92106
350.609	236.94267
350.994	198.90896
351.379	235.18727
351.7639	249.81562
352.1488	219.97379
352.5336	263.85883
352.9185	225.82513
353.3032	269.71017
353.6879	270.88044
354.0726	281.41285
354.4572	267.36963
354.8418	276.73178
355.2264	272.63584
355.6109	309.49928
355.9954	281.41285
356.3798	308.32901
356.7642	296.62633
357.1485	279.07231
357.5328	281.41285
357.9171	275.56151
358.3013	271.46557
358.6855	300.72227
359.0696	263.85883
359.4537	286.09392
359.8378	284.92365
360.2218	270.88044
360.6058	263.2737
360.9897	293.11553
361.3736	252.74129
361.7574	229.92106
362.1412	250.40075
362.525	287.84932
362.9087	290.77499
363.2924	270.2953
363.676	272.05071
364.0596	227.58053
364.4432	243.96428
364.8267	222.31432
365.2102	248.64535
365.5936	221.72919
365.977	219.97379
366.3603	273.22097
366.7436	231.67646
367.1269	244.54941
367.5101	220.55892
367.8933	224.65486
368.2764	234.017
368.6595	226.41026
369.0426	211.19678
369.4256	241.62374
369.8085	253.32642
370.1915	248.06021
370.5743	233.43187
370.9572	265.0291
371.34	226.41026
371.7227	222.31432
372.1055	271.46557
372.4881	265.0291
372.8708	228.16566
373.2534	249.23048
373.6359	262.10343
374.0184	228.16566
374.4009	236.94267
374.7833	224.06972
375.1657	211.19678
375.548	218.21838
375.9303	260.34803
376.3126	284.33852
376.6948	250.98588
377.0769	253.32642
377.4591	229.92106
377.8412	267.36963
378.2232	242.79401
378.6052	245.71968
378.9872	231.67646
379.3691	236.94267
379.751	232.84673
380.1328	248.06021
380.5146	232.84673
380.8963	214.70758
381.278	265.61423
381.6597	222.31432
382.0413	234.60213
382.4229	256.25209
382.8044	247.47508
383.1859	240.45347
383.5674	252.15615
383.9488	246.88995
384.3302	239.86834
384.7115	257.42236
385.0928	266.19937
385.474	245.71968
385.8552	240.45347
386.2364	270.2953
386.6175	243.96428
386.9986	215.87785
387.3796	203.59004
387.7606	245.71968
388.1416	261.5183
388.5225	262.68856
388.9033	256.83722
389.2841	270.2953
389.6649	239.86834
390.0457	280.24258
390.4263	242.20888
390.807	235.18727
391.1876	260.34803
391.5682	219.38865
391.9487	246.88995
392.3292	261.5183
392.7096	269.12504
393.09	260.34803
393.4704	253.91155
393.8507	224.06972
394.231	282.58312
394.6112	251.57102
394.9914	259.17776
395.3715	236.94267
395.7516	283.75338
396.1317	256.25209
396.5117	243.96428
396.8917	265.0291
397.2716	229.92106
397.6515	235.7724
398.0313	246.88995
398.4111	276.14664
398.7909	274.39124
399.1706	265.0291
399.5503	254.49669
399.9299	267.36963
400.3095	244.54941
400.6891	225.23999
401.0686	258.00749
401.448	243.96428
401.8275	252.15615
402.2068	252.74129
402.5862	257.42236
402.9655	255.08182
403.3447	249.81562
403.7239	277.31691
404.1031	253.91155
404.4822	258.59263
404.8613	260.34803
405.2403	275.56151
405.6193	255.08182
405.9983	270.2953
406.3772	256.83722
406.7561	261.5183
407.1349	271.46557
407.5137	259.17776
407.8924	276.14664
408.2711	256.25209
408.6498	279.07231
409.0284	259.76289
409.4069	294.87093
409.7855	232.2616
410.164	262.10343
410.5424	253.32642
410.9208	248.06021
411.2992	274.39124
411.6775	298.96687
412.0557	267.95477
412.434	280.82771
412.8121	290.77499
413.1903	300.72227
413.5684	267.95477
413.9464	264.44396
414.3245	316.52088
414.7024	259.76289
415.0804	304.81821
415.4582	277.90205
415.8361	273.80611
416.2139	286.67905
416.5916	306.57361
416.9694	297.21146
417.347	287.84932
417.7247	264.44396
418.1022	289.60472
418.4798	270.2953
418.8573	298.96687
419.2347	311.25468
419.6122	285.50879
419.9895	305.98847
420.3669	299.552
420.7441	251.57102
421.1214	290.77499
421.4986	249.81562
421.8757	266.7845
422.2529	246.30481
422.6299	279.07231
423.007	287.84932
423.3839	285.50879
423.7609	275.56151
424.1378	291.94526
424.5146	277.31691
424.8915	283.75338
425.2682	304.23307
425.645	313.01008
426.0216	248.06021
426.3983	304.23307
426.7749	283.75338
427.1514	269.71017
427.5279	290.18986
427.9044	281.41285
428.2808	249.23048
428.6572	283.75338
429.0336	266.7845
429.4099	303.64794
429.7861	290.77499
430.1623	307.74388
430.5385	295.45606
430.9146	273.80611
431.2907	325.29789
431.6667	285.50879
432.0427	306.57361
432.4187	298.96687
432.7946	312.42495
433.1705	310.08441
433.5463	353.96946
433.9221	326.46816
434.2978	314.18035
434.6735	345.19245
435.0491	327.63843
435.4248	331.73437
435.8003	338.17084
436.1758	329.39383
436.5513	370.93834
436.9268	348.11812
437.3021	369.76807
437.6775	358.06539
438.0528	424.18553
438.4281	375.61941
438.8033	425.94093
439.1785	461.04896
439.5536	441.73955
439.9287	476.26245
440.3037	515.46642
440.6787	501.42321
441.0537	539.45691
441.4286	579.24602
441.8035	683.39986
442.1783	771.75508
442.5531	953.1466
442.9278	1294.27968
443.3025	1954.89588
443.6772	3059.04361
444.0518	5390.80231
444.4264	9470.9412
444.8009	15479.09638
445.1754	24135.56771
445.5498	31256.64763
445.9242	37874.51236
446.2985	42248.97361
446.6728	40174.67383
447.0471	38890.88999
447.4213	38024.89178
447.7955	36748.71468
448.1696	35502.37941
448.5437	33026.09263
448.9178	32358.45481
449.2918	30654.54481
449.6657	28634.07736
450.0397	27817.81553
450.4135	26685.58138
450.7874	26044.27459
451.1612	24889.80535
451.5349	24107.48129
451.9086	22456.81847
452.2823	20619.49794
452.6559	20105.75035
453.0294	18120.97606
453.403	17917.93459
453.7764	16806.76526
454.1499	15781.02548
454.5233	14625.38597
454.8966	12482.62553
455.2699	10299.49084
455.6432	7940.81597
456.0164	5380.85504
456.3896	3643.5924
456.7627	2257.41013
457.1358	1390.82678
457.5089	959.58307
457.8819	698.02821
458.2548	574.56495
458.6277	467.48544
459.0006	375.61941
459.3734	407.21664
459.7462	373.27888
460.119	346.36271
460.4917	358.65053
460.8643	312.42495
461.2369	310.08441
461.6095	279.07231
461.982	317.10602
462.3545	322.37222
462.7269	331.73437
463.0993	333.48977
463.4717	289.60472
463.844	285.50879
464.2162	313.01008
464.5884	294.87093
464.9606	296.0412
465.3327	281.99798
465.7048	281.41285
466.0769	311.25468
466.4489	305.98847
466.8208	296.0412
467.1927	256.25209
467.5646	288.43446
467.9364	300.72227
468.3082	286.67905
468.6799	296.0412
469.0516	281.99798
469.4232	270.88044
469.7948	260.93316
470.1664	283.75338
470.5379	271.46557
470.9094	290.18986
471.2808	295.45606
471.6522	280.82771
472.0235	262.68856
472.3948	273.80611
472.7661	276.14664
473.1373	261.5183
473.5084	256.83722
473.8796	294.87093
474.2506	281.41285
474.6217	255.08182
474.9927	265.0291
475.3636	277.31691
475.7345	237.5278
476.1054	265.61423
476.4762	288.43446
476.8469	241.03861
477.2177	266.7845
477.5883	245.71968
477.959	262.68856
478.3296	262.10343
478.7001	289.60472
479.0706	288.43446
479.4411	267.95477
479.8115	254.49669
480.1819	254.49669
480.5522	259.76289
480.9225	268.5399
481.2927	278.48718
481.6629	277.90205
482.033	248.06021
482.4031	288.43446
482.7732	270.88044
483.1432	273.22097
483.5132	294.87093
483.8831	280.24258
484.253	248.06021
484.6229	252.74129
484.9926	251.57102
485.3624	285.50879
485.7321	258.00749
486.1018	262.68856
486.4714	276.14664
486.841	271.46557
487.2105	256.83722
487.58	234.60213
487.9494	270.88044
488.3188	256.83722
488.6882	274.39124
489.0575	243.37914
489.4268	246.30481
489.796	240.45347
490.1652	273.80611
490.5343	229.33593
490.9034	259.76289
491.2724	287.26419
491.6414	280.82771
492.0104	223.48459
492.3793	300.13713
492.7482	269.12504
493.117	250.40075
493.4858	272.05071
493.8545	265.0291
494.2232	260.93316
494.5918	262.68856
494.9604	268.5399
495.329	250.40075
495.6975	257.42236
496.066	260.93316
496.4344	229.33593
496.8028	287.26419
497.1711	248.64535
497.5394	257.42236
497.9076	273.22097
498.2758	239.28321
498.644	247.47508
499.0121	254.49669
499.3802	270.88044
499.7482	263.85883
500.1162	243.37914
500.4841	258.59263
500.852	274.39124
501.2198	253.91155
501.5876	262.68856
501.9554	266.7845
502.3231	282.58312
502.6908	274.97638
503.0584	281.99798
503.426	231.67646
503.7935	243.37914
504.161	243.96428
504.5284	259.17776
504.8958	263.85883
505.2632	263.2737
505.6305	243.96428
505.9978	279.65745
506.365	267.95477
506.7322	259.76289
507.0993	249.81562
507.4664	283.16825
507.8334	268.5399
508.2004	262.10343
508.5674	288.43446
508.9343	252.74129
509.3012	253.91155
509.668	267.36963
510.0347	279.07231
510.4015	247.47508
510.7682	230.5062
511.1348	239.28321
511.5014	259.76289
511.8679	269.12504
512.2345	279.07231
512.6009	275.56151
512.9673	241.62374
513.3337	283.16825
513.7	243.96428
514.0663	243.96428
514.4326	270.88044
514.7987	253.91155
515.1649	286.09392
515.531	231.67646
515.8971	283.75338
516.2631	250.98588
516.629	245.13455
516.995	250.98588
517.3608	267.36963
517.7267	292.53039
518.0925	290.18986
518.4582	227.58053
518.8239	262.68856
519.1896	265.0291
519.5552	274.97638
519.9207	234.60213
520.2863	294.2858
520.6517	277.90205
521.0172	268.5399
521.3826	261.5183
521.7479	274.39124
522.1132	287.26419
522.4784	280.82771
522.8436	266.19937
523.2088	270.88044
523.5739	269.12504
523.939	248.06021
524.304	286.09392
524.669	279.07231
525.0339	226.99539
525.3988	279.65745
525.7637	266.7845
526.1285	289.60472
526.4932	264.44396
526.8579	260.34803
527.2226	267.36963
527.5872	246.88995
527.9518	248.06021
528.3163	286.09392
528.6808	273.22097
529.0453	275.56151
529.4096	272.63584
529.774	270.88044
530.1383	299.552
530.5026	248.06021
530.8668	242.20888
531.2309	250.98588
531.5951	245.13455
531.9592	242.79401
532.3232	260.34803
532.6872	273.22097
533.0511	285.50879
533.415	258.59263
533.7789	287.26419
534.1427	259.76289
534.5064	281.99798
534.8702	245.71968
535.2338	247.47508
535.5975	248.06021
535.961	272.05071
536.3246	262.68856
536.6881	265.0291
537.0515	263.2737
537.4149	263.85883
537.7783	262.68856
538.1416	272.63584
538.5049	262.10343
538.8681	221.72919
539.2312	248.06021
539.5944	258.00749
539.9575	279.65745
540.3205	285.50879
540.6835	258.00749
541.0464	284.92365
541.4093	274.39124
541.7722	270.88044
542.135	284.33852
542.4978	243.96428
542.8605	260.34803
543.2232	280.24258
543.5858	268.5399
543.9484	247.47508
544.3109	271.46557
544.6734	293.11553
545.0359	255.66696
545.3983	246.88995
545.7606	252.74129
546.123	255.08182
546.4852	250.40075
546.8474	236.35754
547.2096	277.90205
547.5718	263.85883
547.9338	260.93316
548.2959	265.61423
548.6579	261.5183
549.0198	287.26419
549.3817	269.71017
549.7436	269.12504
550.1054	270.2953
550.4672	254.49669
550.8289	232.84673
551.1906	246.88995
551.5522	247.47508
551.9138	259.17776
552.2753	252.74129
552.6368	236.94267
552.9983	300.72227
553.3597	293.11553
553.721	277.31691
554.0823	274.39124
554.4436	255.08182
554.8048	253.91155
555.166	245.71968
555.5271	233.43187
555.8882	250.98588
556.2493	254.49669
556.6102	258.59263
556.9712	270.88044
557.3321	259.76289
557.6929	269.12504
558.0538	256.83722
558.4145	231.67646
558.7752	255.66696
559.1359	266.7845
559.4965	287.26419
559.8571	287.26419
560.2177	269.12504
560.5781	283.16825
560.9386	277.90205
561.299	259.76289
561.6593	259.17776
562.0196	256.83722
562.3799	261.5183
562.7401	247.47508
563.1003	239.28321
563.4604	238.11294
563.8205	289.60472
564.1805	284.92365
564.5405	262.10343
564.9005	266.19937
565.2603	254.49669
565.6202	273.22097
565.98	245.71968
566.3398	273.80611
566.6995	234.017
567.0591	275.56151
567.4188	259.17776
567.7783	259.76289
568.1379	242.79401
568.4973	252.15615
568.8568	262.10343
569.2162	262.10343
569.5755	268.5399
569.9348	276.14664
570.2941	256.25209
570.6533	229.33593
571.0124	239.86834
571.3715	258.00749
571.7306	262.10343
572.0896	264.44396
572.4486	245.13455
572.8075	253.32642
573.1664	270.2953
573.5253	298.96687
573.884	301.3074
574.2428	271.46557
574.6015	251.57102
574.9601	266.7845
575.3188	229.92106
575.6773	274.39124
576.0358	265.61423
576.3943	267.95477
576.7527	249.23048
577.1111	266.19937
577.4694	240.45347
577.8277	266.7845
578.186	258.00749
578.5442	219.38865
578.9023	255.66696
579.2604	253.32642
579.6185	258.59263
579.9765	275.56151
580.3344	254.49669
580.6924	300.72227
581.0502	290.18986
581.408	269.12504
581.7658	262.10343
582.1236	269.12504
582.4812	242.79401
582.8389	287.84932
583.1965	284.33852
583.554	261.5183
583.9115	266.7845
584.269	233.43187
584.6264	241.03861
584.9838	265.0291
585.3411	253.91155
585.6983	261.5183
586.0556	293.70066
586.4127	272.63584
586.7699	268.5399
587.127	269.12504
587.484	256.83722
587.841	349.87352
588.1979	269.12504
588.5548	273.22097
588.9117	245.13455
589.2685	238.11294
589.6253	265.0291
589.982	238.11294
590.3386	285.50879
590.6953	258.59263
591.0518	274.39124
591.4084	273.22097
591.7648	249.23048
592.1213	263.85883
592.4777	275.56151
592.834	260.34803
593.1903	284.92365
593.5466	239.86834
593.9028	250.40075
594.2589	268.5399
594.615	243.96428
594.9711	241.03861
595.3271	274.39124
595.6831	252.74129
596.039	266.19937
596.3949	243.37914
596.7507	300.13713
597.1065	265.0291
597.4623	236.35754
597.8179	283.16825
598.1736	279.07231
598.5292	284.92365
598.8847	266.19937
599.2403	293.11553
599.5957	259.76289
599.9511	263.2737
600.3065	269.12504
600.6618	245.13455
601.0171	249.81562
601.3723	250.40075
601.7275	221.14405
602.0826	254.49669
602.4377	243.96428
602.7928	231.09133
603.1478	248.64535
603.5027	244.54941
603.8576	255.66696
604.2125	296.62633
604.5673	254.49669
604.922	264.44396
605.2767	242.79401
605.6314	243.96428
605.986	273.22097
606.3406	245.13455
606.6951	259.76289
607.0496	247.47508
607.4041	262.68856
607.7584	275.56151
608.1128	250.40075
608.4671	253.32642
608.8213	247.47508
609.1755	273.22097
609.5297	279.07231
609.8838	281.99798
610.2378	268.5399
610.5919	262.68856
610.9458	265.61423
611.2997	271.46557
611.6536	258.00749
612.0074	264.44396
612.3612	283.16825
612.715	287.84932
613.0686	255.66696
613.4223	292.53039
613.7759	248.06021
614.1294	260.34803
614.4829	246.88995
614.8364	246.88995
615.1898	279.07231
615.5431	249.81562
615.8964	271.46557
616.2497	258.59263
616.6029	274.39124
616.9561	273.22097
617.3092	269.12504
617.6623	291.94526
618.0153	273.80611
618.3683	250.98588
618.7212	295.45606
619.0741	285.50879
619.427	277.90205
619.7798	254.49669
620.1325	297.21146
620.4852	254.49669
620.8379	246.88995
621.1905	279.07231
621.543	267.95477
621.8956	244.54941
622.248	274.39124
622.6004	269.71017
622.9528	261.5183
623.3051	266.7845
623.6574	242.20888
624.0096	258.00749
624.3618	255.66696
624.714	281.41285
625.0661	287.84932
625.4181	249.23048
625.7701	291.94526
626.122	257.42236
626.4739	273.22097
626.8258	241.62374
627.1776	274.97638
627.5294	276.14664
627.8811	282.58312
628.2327	301.89254
628.5844	263.2737
628.9359	236.94267
629.2874	267.36963
629.6389	277.90205
629.9904	286.09392
630.3417	252.15615
630.6931	244.54941
631.0444	288.43446
631.3956	258.59263
631.7468	273.22097
632.0979	257.42236
632.449	234.017
632.8001	267.36963
633.1511	267.95477
633.5021	225.23999
633.853	281.41285
634.2038	267.95477
634.5546	287.84932
634.9054	248.06021
635.2561	225.82513
635.6068	267.95477
635.9574	269.12504
636.308	265.61423
636.6585	250.40075
637.009	260.93316
637.3595	250.40075
637.7098	280.24258
638.0602	273.80611
638.4105	288.43446
638.7607	260.93316
639.1109	262.68856
639.4611	280.24258
639.8112	271.46557
640.1612	259.76289
640.5113	239.86834
640.8612	254.49669
641.2111	274.97638
641.561	267.36963
641.9108	267.36963
642.2606	257.42236
642.6103	263.2737
642.96	247.47508
643.3096	283.16825
643.6592	288.43446
644.0088	287.26419
644.3582	241.03861
644.7077	262.10343
645.0571	250.98588
645.4064	265.0291
645.7557	283.75338
646.105	253.91155
646.4542	279.07231
646.8033	248.64535
647.1524	265.61423
647.5015	262.10343
647.8505	243.96428
648.1995	239.86834
648.5484	269.71017
648.8973	284.92365
649.2461	279.07231
649.5949	262.10343
649.9436	226.99539
650.2923	260.34803
650.6409	270.88044
650.9895	268.5399
651.338	230.5062
651.6865	297.7966
652.0349	291.94526
652.3833	238.69807
652.7317	244.54941
653.08	252.74129
653.4282	256.83722
653.7764	235.18727
654.1246	267.95477
654.4727	271.46557
654.8208	298.38173
655.1688	239.28321
655.5167	273.80611
655.8647	255.66696
656.2125	269.71017
656.5603	273.22097
656.9081	251.57102
657.2558	312.42495
657.6035	278.48718
657.9512	252.15615
658.2987	259.76289
658.6463	255.66696
658.9938	283.75338
659.3412	278.48718
659.6886	268.5399
660.0359	271.46557
660.3832	262.68856
660.7305	284.92365
661.0777	265.0291
661.4248	276.14664
661.7719	233.43187
662.119	269.12504
662.466	255.66696
662.813	267.95477
663.1599	260.34803
663.5067	253.32642
663.8535	278.48718
664.2003	268.5399
664.547	284.92365
664.8937	254.49669
665.2403	249.23048
665.5869	272.05071
665.9334	300.72227
666.2799	243.96428
666.6264	297.7966
666.9727	234.60213
667.3191	300.72227
667.6654	276.14664
668.0116	250.40075
668.3578	249.81562
668.7039	244.54941
669.05	250.98588
669.3961	295.45606
669.7421	273.22097
670.088	256.25209
670.4339	253.32642
670.7798	261.5183
671.1256	256.25209
671.4714	269.71017
671.8171	271.46557
672.1628	290.77499
672.5084	289.60472
672.8539	263.2737
673.1995	273.80611
673.5449	272.63584
673.8904	278.48718
674.2357	270.2953
674.5811	270.88044
674.9263	259.17776
675.2716	289.60472
675.6167	253.91155
675.9619	260.93316
676.307	263.85883
676.652	258.59263
676.997	244.54941
677.3419	255.08182
677.6868	280.24258
678.0317	286.67905
678.3765	252.74129
678.7212	255.08182
679.0659	261.5183
679.4106	262.68856
679.7552	253.91155
680.0997	243.96428
680.4443	262.10343
680.7887	285.50879
681.1331	280.24258
681.4775	291.36013
681.8218	230.5062
682.1661	275.56151
682.5103	245.71968
682.8545	262.68856
683.1986	230.5062
683.5426	247.47508
683.8867	287.84932
684.2306	285.50879
684.5746	264.44396
684.9185	269.12504
685.2623	267.36963
685.6061	277.90205
685.9498	252.74129
686.2935	283.75338
686.6371	297.7966
686.9807	226.41026
687.3243	275.56151
687.6678	241.62374
688.0112	285.50879
688.3546	260.93316
688.6979	278.48718
689.0412	252.15615
689.3845	248.06021
689.7277	241.62374
690.0708	272.63584
690.4139	269.71017
690.757	255.66696
691.1	269.12504
691.443	279.65745
691.7859	246.30481
692.1287	241.62374
692.4716	277.90205
692.8143	267.36963
693.157	259.17776
693.4997	256.83722
693.8423	255.66696
694.1849	262.68856
694.5274	243.96428
694.8699	272.05071
695.2123	310.08441
695.5547	269.71017
695.897	227.58053
696.2393	285.50879
696.5815	265.0291
696.9237	279.07231
697.2658	238.69807
697.6079	265.0291
697.95	280.82771
698.292	280.82771
698.6339	265.61423
698.9758	259.17776
699.3176	253.91155
699.6594	246.88995
700.0012	245.71968
700.3429	265.0291
700.6845	250.40075
701.0261	217.04812
701.3677	263.85883
701.7092	262.10343
702.0506	250.40075
702.392	255.66696
702.7334	273.80611
703.0747	277.90205
703.4159	220.55892
703.7571	269.71017
704.0983	234.017
704.4394	282.58312
704.7805	242.20888
705.1215	262.68856
705.4624	266.19937
705.8034	250.40075
